## w(eV)         sigma(Sm^-1)     kappa(W(mK)^-1)        L12/e(Am^-1)      L22/e^2(Wm^-1)
    0.01              353938             584.571        -6.92778e+06         1.90978e+08
    0.03              353935             584.563        -6.92774e+06         1.90977e+08
    0.05              353929             584.549        -6.92768e+06         1.90976e+08
    0.07              353920             584.527        -6.92757e+06         1.90973e+08
    0.09              353908             584.498        -6.92744e+06         1.90969e+08
    0.11              353893             584.461        -6.92727e+06         1.90965e+08
    0.13              353875             584.417        -6.92706e+06          1.9096e+08
    0.15              353853             584.366        -6.92682e+06         1.90954e+08
    0.17              353829             584.308        -6.92655e+06         1.90947e+08
    0.19              353802             584.242        -6.92624e+06         1.90939e+08
    0.21              353772             584.169        -6.92589e+06          1.9093e+08
    0.23              353738             584.089        -6.92552e+06         1.90921e+08
    0.25              353702             584.002        -6.92511e+06          1.9091e+08
    0.27              353663             583.907        -6.92466e+06         1.90899e+08
    0.29              353620             583.805        -6.92418e+06         1.90887e+08
    0.31              353575             583.696        -6.92367e+06         1.90873e+08
    0.33              353526             583.579        -6.92312e+06         1.90859e+08
    0.35              353475             583.455        -6.92253e+06         1.90845e+08
    0.37              353421             583.324        -6.92192e+06         1.90829e+08
    0.39              353363             583.186        -6.92126e+06         1.90812e+08
    0.41              353303              583.04        -6.92058e+06         1.90795e+08
    0.43              353239             582.888        -6.91986e+06         1.90777e+08
    0.45              353173             582.728         -6.9191e+06         1.90757e+08
    0.47              353103              582.56        -6.91831e+06         1.90737e+08
    0.49              353030             582.386        -6.91749e+06         1.90716e+08
    0.51              352955             582.204        -6.91663e+06         1.90694e+08
    0.53              352876             582.015        -6.91574e+06         1.90672e+08
    0.55              352795             581.819        -6.91481e+06         1.90648e+08
    0.57              352710             581.616        -6.91385e+06         1.90624e+08
    0.59              352623             581.406        -6.91285e+06         1.90598e+08
    0.61              352532             581.188        -6.91182e+06         1.90572e+08
    0.63              352438             580.964        -6.91076e+06         1.90545e+08
    0.65              352342             580.732        -6.90966e+06         1.90517e+08
    0.67              352242             580.493        -6.90852e+06         1.90488e+08
    0.69              352139             580.247        -6.90735e+06         1.90459e+08
    0.71              352034             579.994        -6.90615e+06         1.90428e+08
    0.73              351925             579.733        -6.90491e+06         1.90397e+08
    0.75              351814             579.466        -6.90364e+06         1.90364e+08
    0.77              351699             579.191        -6.90233e+06         1.90331e+08
    0.79              351582              578.91        -6.90099e+06         1.90297e+08
    0.81              351461             578.621        -6.89961e+06         1.90262e+08
    0.83              351337             578.326         -6.8982e+06         1.90226e+08
    0.85              351211             578.023        -6.89675e+06         1.90189e+08
    0.87              351081             577.713        -6.89527e+06         1.90152e+08
    0.89              350949             577.397        -6.89375e+06         1.90113e+08
    0.91              350814             577.073         -6.8922e+06         1.90074e+08
    0.93              350675             576.742        -6.89061e+06         1.90034e+08
    0.95              350534             576.405        -6.88899e+06         1.89993e+08
    0.97              350389              576.06        -6.88733e+06         1.89951e+08
    0.99              350242             575.709        -6.88564e+06         1.89908e+08
    1.01              350092              575.35        -6.88391e+06         1.89864e+08
    1.03              349939             574.985        -6.88215e+06         1.89819e+08
    1.05              349783             574.613        -6.88036e+06         1.89774e+08
    1.07              349623             574.234        -6.87852e+06         1.89727e+08
    1.09              349461             573.848        -6.87666e+06          1.8968e+08
    1.11              349296             573.455        -6.87475e+06         1.89632e+08
    1.13              349128             573.055        -6.87282e+06         1.89583e+08
    1.15              348957             572.649        -6.87084e+06         1.89533e+08
    1.17              348784             572.236        -6.86883e+06         1.89482e+08
    1.19              348607             571.816        -6.86679e+06          1.8943e+08
    1.21              348427             571.389        -6.86471e+06         1.89378e+08
    1.23              348244             570.956         -6.8626e+06         1.89324e+08
    1.25              348059             570.516        -6.86045e+06          1.8927e+08
    1.27              347870             570.069        -6.85826e+06         1.89215e+08
    1.29              347679             569.615        -6.85604e+06         1.89158e+08
    1.31              347485             569.155        -6.85378e+06         1.89101e+08
    1.33              347288             568.688        -6.85149e+06         1.89043e+08
    1.35              347087             568.215        -6.84916e+06         1.88985e+08
    1.37              346884             567.735         -6.8468e+06         1.88925e+08
    1.39              346679             567.248         -6.8444e+06         1.88864e+08
    1.41              346470             566.755        -6.84197e+06         1.88803e+08
    1.43              346258             566.255         -6.8395e+06         1.88741e+08
    1.45              346043             565.749        -6.83699e+06         1.88677e+08
    1.47              345826             565.236        -6.83445e+06         1.88613e+08
    1.49              345606             564.717        -6.83187e+06         1.88548e+08
    1.51              345382             564.191        -6.82925e+06         1.88482e+08
    1.53              345156             563.659         -6.8266e+06         1.88415e+08
    1.55              344927              563.12        -6.82392e+06         1.88348e+08
    1.57              344696             562.575        -6.82119e+06         1.88279e+08
    1.59              344461             562.024        -6.81843e+06          1.8821e+08
    1.61              344223             561.466        -6.81564e+06         1.88139e+08
    1.63              343983             560.902        -6.81281e+06         1.88068e+08
    1.65              343740             560.332        -6.80994e+06         1.87996e+08
    1.67              343494             559.755        -6.80704e+06         1.87923e+08
    1.69              343245             559.172         -6.8041e+06         1.87849e+08
    1.71              342993             558.583        -6.80112e+06         1.87774e+08
    1.73              342738             557.988        -6.79811e+06         1.87698e+08
    1.75              342481             557.387        -6.79506e+06         1.87621e+08
    1.77              342221             556.779        -6.79197e+06         1.87544e+08
    1.79              341958             556.165        -6.78885e+06         1.87465e+08
    1.81              341692             555.546        -6.78569e+06         1.87386e+08
    1.83              341423              554.92        -6.78249e+06         1.87305e+08
    1.85              341152             554.288        -6.77926e+06         1.87224e+08
    1.87              340878              553.65        -6.77599e+06         1.87142e+08
    1.89              340601             553.006        -6.77268e+06         1.87059e+08
    1.91              340321             552.356        -6.76934e+06         1.86975e+08
    1.93              340038               551.7        -6.76596e+06          1.8689e+08
    1.95              339753             551.038        -6.76254e+06         1.86805e+08
    1.97              339465              550.37        -6.75908e+06         1.86718e+08
    1.99              339174             549.697        -6.75559e+06         1.86631e+08
    2.01              338880             549.017        -6.75206e+06         1.86542e+08
    2.03              338584             548.332         -6.7485e+06         1.86453e+08
    2.05              338285             547.641        -6.74489e+06         1.86362e+08
    2.07              337983             546.944        -6.74125e+06         1.86271e+08
    2.09              337678             546.241        -6.73757e+06         1.86179e+08
    2.11              337371             545.533        -6.73386e+06         1.86086e+08
    2.13              337061             544.819         -6.7301e+06         1.85992e+08
    2.15              336748             544.099        -6.72631e+06         1.85897e+08
    2.17              336433             543.374        -6.72249e+06         1.85802e+08
    2.19              336114             542.643        -6.71862e+06         1.85705e+08
    2.21              335793             541.907        -6.71472e+06         1.85607e+08
    2.23              335470             541.165        -6.71077e+06         1.85509e+08
    2.25              335143             540.418        -6.70679e+06          1.8541e+08
    2.27              334814             539.665        -6.70278e+06         1.85309e+08
    2.29              334483             538.906        -6.69872e+06         1.85208e+08
    2.31              334148             538.143        -6.69463e+06         1.85106e+08
    2.33              333811             537.374         -6.6905e+06         1.85003e+08
    2.35              333472             536.599        -6.68633e+06         1.84899e+08
    2.37              333129             535.819        -6.68212e+06         1.84794e+08
    2.39              332784             535.034        -6.67788e+06         1.84688e+08
    2.41              332437             534.244        -6.67359e+06         1.84581e+08
    2.43              332086             533.448        -6.66927e+06         1.84473e+08
    2.45              331733             532.647        -6.66491e+06         1.84365e+08
    2.47              331378             531.841        -6.66051e+06         1.84255e+08
    2.49              331020              531.03        -6.65608e+06         1.84145e+08
    2.51              330659             530.214         -6.6516e+06         1.84033e+08
    2.53              330296             529.393        -6.64709e+06         1.83921e+08
    2.55              329930             528.566        -6.64253e+06         1.83808e+08
    2.57              329561             527.735        -6.63794e+06         1.83694e+08
    2.59              329190             526.899        -6.63331e+06         1.83578e+08
    2.61              328816             526.057        -6.62864e+06         1.83462e+08
    2.63              328440             525.211        -6.62393e+06         1.83345e+08
    2.65              328061              524.36        -6.61919e+06         1.83227e+08
    2.67              327679             523.504         -6.6144e+06         1.83108e+08
    2.69              327295             522.643        -6.60958e+06         1.82989e+08
    2.71              326909             521.778        -6.60471e+06         1.82868e+08
    2.73              326520             520.907        -6.59981e+06         1.82746e+08
    2.75              326128             520.032        -6.59487e+06         1.82623e+08
    2.77              325734             519.152        -6.58989e+06           1.825e+08
    2.79              325337             518.268        -6.58487e+06         1.82375e+08
    2.81              324938             517.379        -6.57981e+06          1.8225e+08
    2.83              324536             516.485        -6.57471e+06         1.82123e+08
    2.85              324132             515.587        -6.56957e+06         1.81996e+08
    2.87              323726             514.684        -6.56439e+06         1.81868e+08
    2.89              323316             513.777        -6.55918e+06         1.81739e+08
    2.91              322905             512.866        -6.55392e+06         1.81608e+08
    2.93              322491             511.949        -6.54862e+06         1.81477e+08
    2.95              322074             511.029        -6.54329e+06         1.81345e+08
    2.97              321655             510.104        -6.53791e+06         1.81212e+08
    2.99              321234             509.175        -6.53249e+06         1.81078e+08
    3.01              320810             508.242        -6.52704e+06         1.80943e+08
    3.03              320383             507.304        -6.52154e+06         1.80807e+08
    3.05              319954             506.362        -6.51601e+06          1.8067e+08
    3.07              319523             505.416        -6.51043e+06         1.80532e+08
    3.09              319090             504.466        -6.50482e+06         1.80394e+08
    3.11              318654             503.511        -6.49916e+06         1.80254e+08
    3.13              318215             502.553        -6.49347e+06         1.80113e+08
    3.15              317774              501.59        -6.48773e+06         1.79972e+08
    3.17              317331             500.624        -6.48196e+06         1.79829e+08
    3.19              316885             499.653        -6.47614e+06         1.79685e+08
    3.21              316438             498.679        -6.47028e+06         1.79541e+08
    3.23              315987             497.701        -6.46439e+06         1.79395e+08
    3.25              315535             496.718        -6.45845e+06         1.79249e+08
    3.27              315080             495.732        -6.45247e+06         1.79101e+08
    3.29              314622             494.743        -6.44646e+06         1.78953e+08
    3.31              314163             493.749         -6.4404e+06         1.78804e+08
    3.33              313701             492.752         -6.4343e+06         1.78653e+08
    3.35              313236             491.751        -6.42816e+06         1.78502e+08
    3.37              312770             490.746        -6.42198e+06          1.7835e+08
    3.39              312301             489.738        -6.41576e+06         1.78196e+08
    3.41              311830             488.726         -6.4095e+06         1.78042e+08
    3.43              311356              487.71        -6.40319e+06         1.77887e+08
    3.45              310881             486.691        -6.39685e+06         1.77731e+08
    3.47              310403             485.669        -6.39047e+06         1.77574e+08
    3.49              309922             484.643        -6.38404e+06         1.77415e+08
    3.51              309440             483.613        -6.37758e+06         1.77256e+08
    3.53              308955             482.581        -6.37107e+06         1.77096e+08
    3.55              308468             481.545        -6.36452e+06         1.76935e+08
    3.57              307979             480.505        -6.35793e+06         1.76773e+08
    3.59              307488             479.463        -6.35131e+06          1.7661e+08
    3.61              306994             478.417        -6.34463e+06         1.76446e+08
    3.63              306498             477.368        -6.33792e+06         1.76281e+08
    3.65              306000             476.315        -6.33117e+06         1.76115e+08
    3.67              305500              475.26        -6.32438e+06         1.75948e+08
    3.69              304998             474.201        -6.31754e+06          1.7578e+08
    3.71              304493              473.14        -6.31066e+06         1.75611e+08
    3.73              303987             472.075        -6.30375e+06         1.75441e+08
    3.75              303478             471.008        -6.29679e+06          1.7527e+08
    3.77              302967             469.937        -6.28979e+06         1.75098e+08
    3.79              302454             468.864        -6.28275e+06         1.74925e+08
    3.81              301939             467.788        -6.27566e+06         1.74752e+08
    3.83              301422             466.709        -6.26854e+06         1.74577e+08
    3.85              300902             465.627        -6.26137e+06         1.74401e+08
    3.87              300381             464.542        -6.25417e+06         1.74224e+08
    3.89              299857             463.454        -6.24692e+06         1.74046e+08
    3.91              299332             462.364        -6.23963e+06         1.73867e+08
    3.93              298804             461.272         -6.2323e+06         1.73687e+08
    3.95              298274             460.176        -6.22492e+06         1.73506e+08
    3.97              297743             459.078        -6.21751e+06         1.73325e+08
    3.99              297209             457.977        -6.21005e+06         1.73142e+08
    4.01              296673             456.874        -6.20255e+06         1.72958e+08
    4.03              296135             455.769        -6.19501e+06         1.72773e+08
    4.05              295595             454.661        -6.18743e+06         1.72587e+08
    4.07              295053              453.55        -6.17981e+06           1.724e+08
    4.09              294510             452.437        -6.17215e+06         1.72213e+08
    4.11              293964             451.322        -6.16444e+06         1.72024e+08
    4.13              293416             450.205         -6.1567e+06         1.71834e+08
    4.15              292866             449.085        -6.14891e+06         1.71643e+08
    4.17              292315             447.963        -6.14108e+06         1.71451e+08
    4.19              291761             446.838         -6.1332e+06         1.71258e+08
    4.21              291206             445.712        -6.12529e+06         1.71064e+08
    4.23              290648             444.584        -6.11734e+06         1.70869e+08
    4.25              290089             443.453        -6.10934e+06         1.70674e+08
    4.27              289527              442.32         -6.1013e+06         1.70477e+08
    4.29              288964             441.185        -6.09322e+06         1.70279e+08
    4.31              288399             440.049         -6.0851e+06          1.7008e+08
    4.33              287832              438.91        -6.07694e+06          1.6988e+08
    4.35              287264             437.769        -6.06873e+06         1.69679e+08
    4.37              286693             436.627        -6.06049e+06         1.69477e+08
    4.39              286121             435.483         -6.0522e+06         1.69274e+08
    4.41              285546             434.336        -6.04387e+06          1.6907e+08
    4.43              284970             433.188         -6.0355e+06         1.68865e+08
    4.45              284392             432.039        -6.02709e+06         1.68659e+08
